File: Experiment 3 - Quantum Dots/Spectroscopy/Cenco Quantum Dots/red.txt
# Wavelength (nm), Intensity (colors)
175.94	1261.55
178.81	3747.97
181.68	3587.30
184.54	3522.69
187.40	3884.07
190.26	3435.00
193.12	3563.28
195.98	3697.51
198.83	3519.34
201.68	3435.00
204.53	3432.40
207.38	3945.50
210.23	3485.27
213.07	3473.54
215.91	3444.31
218.75	3454.36
221.59	3592.32
224.43	3819.83
227.26	3731.03
230.09	3420.29
232.92	3656.93
235.75	3381.38
238.58	3402.23
241.40	3383.99
244.22	3599.21
247.04	3325.90
249.86	3361.09
252.67	3729.35
255.49	3164.67
258.30	3309.15
261.11	3286.80
263.91	3386.97
266.72	3402.42
269.52	3241.56
272.32	3885.74
275.12	3334.47
277.92	3313.80
280.71	3693.79
283.51	3314.54
286.30	3327.02
289.08	3233.74
291.87	3301.14
294.65	3808.29
297.44	3470.19
300.22	3324.60
302.99	3376.36
305.77	3446.92
308.54	3305.42
311.31	3190.74
314.08	3218.29
316.85	3233.93
319.62	3189.62
322.38	3163.93
325.14	3423.65
327.90	3226.67
330.65	3319.38
333.41	3307.10
336.16	3194.27
338.91	3156.48
341.66	3389.20
344.40	3244.91
347.15	3277.49
349.89	3356.06
352.63	3361.83
355.36	3126.69
358.10	3209.73
360.83	3375.24
363.56	3404.65
366.29	3758.95
369.01	3520.46
371.74	3203.95
374.46	3528.28
377.18	3490.67
379.90	3569.98
382.61	3260.18
385.32	3238.96
388.03	3321.81
390.74	3495.88
393.45	3428.11
396.15	3874.76
398.85	4014.39
401.55	4047.34
404.25	4498.46
406.95	4193.12
409.64	3819.28
412.33	3862.10
415.02	3725.44
417.70	3452.32
420.39	3595.12
423.07	3627.70
425.75	3486.76
428.43	3286.80
431.10	3317.52
433.77	3387.71
436.44	3356.81
439.11	3307.28
441.78	3266.51
444.44	4911.22
447.10	3344.15
449.76	3328.14
452.42	3190.18
455.07	3237.28
457.72	3240.82
460.37	3341.17
463.02	3371.14
465.66	3669.22
468.31	3502.40
470.95	3089.45
473.59	3461.07
476.22	3499.23
478.86	3198.37
481.49	3290.34
484.12	3262.23
486.74	3644.64
489.37	3354.95
491.99	3236.72
494.61	3553.41
497.23	3305.05
499.84	3532.56
502.45	3705.52
505.06	3706.08
507.67	3467.58
510.28	3655.44
512.88	3556.39
515.48	3782.60
518.08	3743.50
520.68	3740.71
523.27	3643.34
525.86	3873.83
528.45	3925.77
531.04	4650.01
533.62	4257.35
536.20	4303.53
538.78	4724.48
541.36	4787.59
543.94	4756.50
546.51	5066.49
549.08	5239.08
551.65	5130.35
554.21	5431.59
556.77	5669.15
559.33	6354.29
561.89	6208.51
564.45	6594.65
567.00	6990.09
569.55	7134.38
572.10	7962.87
574.65	8058.01
577.19	8730.30
579.73	9245.28
582.27	10272.80
584.81	10577.94
587.34	11422.27
589.87	12116.16
592.40	13014.84
594.93	13700.35
597.45	14671.09
599.97	15492.88
602.49	16185.66
605.01	17033.14
607.52	18005.74
610.03	18952.83
612.54	19575.42
615.05	20485.83
617.56	21347.47
620.06	22031.49
622.56	22564.71
625.05	22684.98
627.55	23573.61
630.04	22609.95
632.53	21981.41
635.02	21163.71
637.50	20189.06
639.98	19276.60
642.46	18174.98
644.94	16961.46
647.41	16011.39
649.89	14775.16
652.36	13605.21
654.82	12443.46
657.29	11566.93
659.75	10273.17
662.21	9608.88
664.66	8842.57
667.12	8235.25
669.57	7382.55
672.02	7154.30
674.47	6355.03
676.91	6128.08
679.35	5953.07
681.79	5581.65
684.23	5281.34
686.66	4942.68
689.09	4656.52
691.52	4672.91
693.95	4581.12
696.37	4618.91
698.79	4260.71
701.21	4250.28
703.63	4448.37
706.04	4083.46
708.45	4223.47
710.86	4156.07
713.27	4447.63
715.67	4727.27
718.07	4762.46
720.47	4032.08
722.86	4136.52
725.26	3719.30
727.65	3825.23
730.03	3673.87
732.42	3744.06
734.80	3626.58
737.18	3848.32
739.56	3837.52
741.93	4119.95
744.30	3832.49
746.67	3889.28
749.04	3520.27
751.40	3875.32
753.76	3788.93
756.12	3837.71
758.48	3658.42
760.83	3843.48
763.18	3976.04
765.53	3883.88
767.88	3640.17
770.22	3661.77
772.56	3913.30
774.90	3702.36
777.23	3737.36
779.56	3919.44
781.89	3701.80
784.22	4359.38
786.54	3428.30
788.87	3514.50
791.18	3509.47
793.50	3776.27
795.81	3688.02
798.12	3489.92
800.43	3759.51
802.74	3812.57
805.04	3812.57
807.34	3595.49
809.64	3475.96
811.93	3509.85
814.22	3408.01
816.51	3426.81
818.80	3421.04
821.08	3973.80
823.36	3538.33
825.64	3265.02
827.91	3366.86
830.19	3743.31
832.46	3421.97
834.72	3681.50
836.99	3338.93
839.25	3226.85
841.51	3367.05
843.77	3522.32
846.02	3403.35
848.27	3518.60
850.52	3729.35
852.76	3422.71
855.00	3423.83
857.24	3588.04
859.48	3615.22
861.71	3246.78
863.95	3660.65
866.17	3385.29
868.40	3212.89
870.62	3245.47
872.84	3345.26
875.06	3416.01
877.27	3244.35
879.49	3440.03
881.69	3636.63
883.90	3528.28
886.10	3791.72
888.30	3286.80
890.50	3647.80
891.68	3461.07