File: Experiment 3 - Quantum Dots/Spectroscopy/Cenco Quantum Dots/yellow.txt
# Wavelength (nm), Intensity (colors)
175.94	1253.36
178.81	3724.51
181.68	3534.98
184.54	3481.73
187.40	3862.47
190.26	3381.75
193.12	3560.49
195.98	3654.13
198.83	3488.06
201.68	3406.70
204.53	3397.39
207.38	3911.43
210.23	3483.22
213.07	3453.25
215.91	3442.45
218.75	3429.23
221.59	3561.05
224.43	3808.10
227.26	3730.10
230.09	3420.67
232.92	3610.57
235.75	3350.48
238.58	3378.40
241.40	3379.52
244.22	3570.17
247.04	3318.45
249.86	3342.10
252.67	3647.99
255.49	3136.56
258.30	3296.30
261.11	3260.92
263.91	3350.29
266.72	3351.59
269.52	3236.54
272.32	3850.18
275.12	3325.72
277.92	3298.72
280.71	3677.78
283.51	3253.11
286.30	3302.63
289.08	3164.11
291.87	3274.89
294.65	3763.98
297.44	3448.97
300.22	3315.66
302.99	3381.20
305.77	3407.63
308.54	3291.27
311.31	3165.41
314.08	3208.05
316.85	3178.08
319.62	3163.55
322.38	3139.91
325.14	3396.09
327.90	3186.64
330.65	3332.05
333.41	3289.97
336.16	3177.14
338.91	3121.48
341.66	3380.08
344.40	3213.64
347.15	3273.40
349.89	3333.91
352.63	3330.00
355.36	3053.89
358.10	3222.76
360.83	3399.81
363.56	3373.38
366.29	3750.58
369.01	3466.65
371.74	3210.28
374.46	3499.23
377.18	3479.69
379.90	3567.56
382.61	3322.74
385.32	3306.91
388.03	3495.51
390.74	3731.21
393.45	3941.04
396.15	4660.99
398.85	5159.95
401.55	5556.51
404.25	6052.12
406.95	5304.05
409.64	4752.59
412.33	4483.19
415.02	4159.98
417.70	3809.78
420.39	3813.88
423.07	3790.79
425.75	3586.92
428.43	3346.19
431.10	3378.78
433.77	3438.35
436.44	3414.52
439.11	3359.79
441.78	3290.90
444.44	4893.53
447.10	3366.12
449.76	3388.64
452.42	3240.07
455.07	3262.23
457.72	3295.00
460.37	3386.22
463.02	3471.49
465.66	3722.83
468.31	3634.59
470.95	3249.01
473.59	3608.71
476.22	3696.21
478.86	3469.07
481.49	3535.54
484.12	3617.09
486.74	4047.53
489.37	3830.45
491.99	3760.44
494.61	4196.66
497.23	4022.58
499.84	4341.88
502.45	4681.66
505.06	4755.38
507.67	4636.23
510.28	5032.79
512.88	5112.66
515.48	5578.48
518.08	5721.65
520.68	5957.73
523.27	6114.68
525.86	6582.54
528.45	6801.86
531.04	7793.27
533.62	7646.56
536.20	7887.29
538.78	8581.36
541.36	8770.33
543.94	8975.32
546.51	9400.55
549.08	9702.72
551.65	9773.09
554.21	10089.78
556.77	10181.57
559.33	10722.42
561.89	10358.07
564.45	10343.92
567.00	10339.82
569.55	9947.36
572.10	10091.09
574.65	9409.11
577.19	9307.65
579.73	8719.88
582.27	8730.49
584.81	7995.27
587.34	7823.05
589.87	7297.10
592.40	7071.45
594.93	6532.65
597.45	6320.03
599.97	5978.21
602.49	5504.01
605.01	5388.21
607.52	5292.51
610.03	5250.43
612.54	4850.52
615.05	4866.35
617.56	4834.51
620.06	4685.75
622.56	4607.93
625.05	4491.01
627.55	5262.53
630.04	4642.19
632.53	4538.30
635.02	4411.88
637.50	4350.82
639.98	4349.70
642.46	4315.44
644.94	4220.86
647.41	4383.21
649.89	4289.94
652.36	4313.77
654.82	4224.77
657.29	4296.45
659.75	4008.25
662.21	4215.28
664.66	4161.10
667.12	4310.79
669.57	4021.65
672.02	4337.23
674.47	3953.32
676.91	4157.19
679.35	4321.21
681.79	4237.06
684.23	4166.87
686.66	4057.96
689.09	3908.83
691.52	4070.99
693.95	4053.12
696.37	4240.41
698.79	3934.33
701.21	3976.04
703.63	4183.63
706.04	3933.03
708.45	4075.46
710.86	4046.04
713.27	4343.00
715.67	4613.52
718.07	4673.65
720.47	3942.15
722.86	4092.21
725.26	3660.28
727.65	3826.35
730.03	3628.63
732.42	3705.52
734.80	3590.46
737.18	3802.15
739.56	3813.88
741.93	4066.34
744.30	3790.60
746.67	3814.06
749.04	3475.78
751.40	3871.22
753.76	3679.27
756.12	3783.90
758.48	3615.22
760.83	3769.94
763.18	3923.72
765.53	3840.31
767.88	3547.45
770.22	3610.57
772.56	3857.81
774.90	3642.22
777.23	3706.82
779.56	3788.56
781.89	3637.56
784.22	4255.68
786.54	3382.31
788.87	3456.41
791.18	3459.95
793.50	3701.98
795.81	3651.34
798.12	3442.26
800.43	3680.94
802.74	3742.01
805.04	3754.11
807.34	3534.98
809.64	3416.20
811.93	3445.80
814.22	3330.00
816.51	3419.55
818.80	3376.17
821.08	3907.52
823.36	3488.62
825.64	3233.56
827.91	3326.27
830.19	3678.15
832.46	3387.34
834.72	3648.55
836.99	3350.48
839.25	3169.51
841.51	3297.97
843.77	3489.37
846.02	3332.79
848.27	3439.10
850.52	3662.14
852.76	3391.44
855.00	3405.40
857.24	3556.02
859.48	3581.34
861.71	3192.78
863.95	3643.52
866.17	3325.72
868.40	3197.81
870.62	3183.10
872.84	3319.76
875.06	3362.39
877.27	3203.21
879.49	3403.17
881.69	3593.44
883.90	3496.26
886.10	3738.29
888.30	3265.95
890.50	3647.06
891.68	3522.51